1		 				2		 				3		 				4		 				5		 				6		 				7		 				8		 				9		 				10		 				11		 			
AM1.5G	15.577367	 	 	Measure Mode	AC-EQE	AM1.5G	13.742883	 	 	Measure Mode	AC-EQE	AM1.5G	11.628550	 	 	Measure Mode	AC-EQE	AM1.5G	14.369034	 	 	Measure Mode	AC-EQE	AM1.5G	15.061939	 	 	Measure Mode	AC-EQE	AM1.5G	6.599765	 	 	Measure Mode	AC-EQE	AM1.5G	13.806451	 	 	Measure Mode	AC-EQE	AM1.5G	18.148880	 	 	Measure Mode	AC-EQE	AM1.5G	9.211649	 	 	Measure Mode	AC-EQE	AM1.5G	16.586746	 	 	Measure Mode	AC-EQE	AM1.5G	15.638577	 	 	Measure Mode	AC-EQE
AM1.5D	13.550353	 	 	AM 1.5G	15.577367	AM1.5D	11.956632	 	 	AM 1.5G	13.742883	AM1.5D	10.114766	 	 	AM 1.5G	11.628550	AM1.5D	12.496883	 	 	AM 1.5G	14.369034	AM1.5D	13.173935	 	 	AM 1.5G	15.061939	AM1.5D	5.802945	 	 	AM 1.5G	6.599765	AM1.5D	12.127619	 	 	AM 1.5G	13.806451	AM1.5D	15.860593	 	 	AM 1.5G	18.148880	AM1.5D	8.076688	 	 	AM 1.5G	9.211649	AM1.5D	14.576890	 	 	AM 1.5G	16.586746	AM1.5D	13.708633	 	 	AM 1.5G	15.638577
AM 0	19.331328	 	 	AM 1.5D	13.550353	AM 0	17.048686	 	 	AM 1.5D	11.956632	AM 0	14.423769	 	 	AM 1.5D	10.114766	AM 0	17.839639	 	 	AM 1.5D	12.496883	AM 0	18.515191	 	 	AM 1.5D	13.173935	AM 0	8.037075	 	 	AM 1.5D	5.802945	AM 0	16.841563	 	 	AM 1.5D	12.127619	AM 0	22.344592	 	 	AM 1.5D	15.860593	AM 0	11.274172	 	 	AM 1.5D	8.076688	AM 0	20.218347	 	 	AM 1.5D	14.576890	AM 0	19.146495	 	 	AM 1.5D	13.708633
Lambda(nm)	EQE (%)	SR (A/W)	Jsc (mA/cm^2)	AM 0	19.331328	Lambda(nm)	EQE (%)	SR (A/W)	Jsc (mA/cm^2)	AM 0	17.048686	Lambda(nm)	EQE (%)	SR (A/W)	Jsc (mA/cm^2)	AM 0	14.423769	Lambda(nm)	EQE (%)	SR (A/W)	Jsc (mA/cm^2)	AM 0	17.839639	Lambda(nm)	EQE (%)	SR (A/W)	Jsc (mA/cm^2)	AM 0	18.515191	Lambda(nm)	EQE (%)	SR (A/W)	Jsc (mA/cm^2)	AM 0	8.037075	Lambda(nm)	EQE (%)	SR (A/W)	Jsc (mA/cm^2)	AM 0	16.841563	Lambda(nm)	EQE (%)	SR (A/W)	Jsc (mA/cm^2)	AM 0	22.344592	Lambda(nm)	EQE (%)	SR (A/W)	Jsc (mA/cm^2)	AM 0	11.274172	Lambda(nm)	EQE (%)	SR (A/W)	Jsc (mA/cm^2)	AM 0	20.218347	Lambda(nm)	EQE (%)	SR (A/W)	Jsc (mA/cm^2)	AM 0	19.146495
300.0	2.715762	0.006570	0.000000	WL-Range	300-850nm	300.0	2.083083	0.005040	0.000000	WL-Range	300-850nm	300.0	4.103388	0.009928	0.000000	WL-Range	300-850nm	300.0	3.454071	0.008357	0.000000	WL-Range	300-850nm	300.0	3.081026	0.007454	0.000000	WL-Range	300-850nm	300.0	1.248506	0.003021	0.000000	WL-Range	300-850nm	300.0	1.365883	0.003305	0.000000	WL-Range	300-850nm	300.0	3.214437	0.007777	0.000000	WL-Range	300-850nm	300.0	5.790340	0.014009	0.000000	WL-Range	300-850nm	300.0	1.481996	0.003585	0.000000	WL-Range	300-850nm	300.0	1.254732	0.003036	0.000000	WL-Range	300-850nm
305.0	4.526337	0.011133	0.000029	Voltage Bias	0.00	305.0	4.258894	0.010476	0.000026	Voltage Bias	0.00	310.0	3.991067	0.009978	0.000188	Voltage Bias	0.00	310.0	8.880156	0.022200	0.000347	Voltage Bias	0.00	310.0	7.761771	0.019404	0.000304	Voltage Bias	0.00	310.0	2.726600	0.006817	0.000109	Voltage Bias	0.00	310.0	5.977559	0.014944	0.000221	Voltage Bias	0.00	310.0	9.763147	0.024408	0.000374	Voltage Bias	0.00	310.0	9.222090	0.023055	0.000388	Voltage Bias	0.00	310.0	7.050570	0.017626	0.000259	Voltage Bias	0.00	310.0	5.296447	0.013241	0.000196	Voltage Bias	0.00
310.0	9.232394	0.023081	0.000290	Date/Time	03-27_17-58-47	310.0	7.213632	0.018034	0.000238	Date/Time	03-27_18-07-44	320.0	11.871987	0.030637	0.002944	Date/Time	03-27_18-20-00	320.0	22.750148	0.058710	0.005811	Date/Time	03-27_18-29-37	320.0	19.361720	0.049966	0.004973	Date/Time	03-27_18-51-09	320.0	6.962040	0.017967	0.001779	Date/Time	03-27_18-55-54	320.0	13.308447	0.034344	0.003507	Date/Time	03-27_18-59-21	320.0	25.019582	0.064567	0.006390	Date/Time	03-27_19-04-53	320.0	2.777304	0.007167	0.001829	Date/Time	03-27_19-20-32	320.0	17.486282	0.045126	0.004497	Date/Time	03-27_19-26-23	320.0	18.488891	0.047713	0.004458	Date/Time	03-27_19-30-33
315.0	14.618366	0.037135	0.001524	Spent Seconds	117.000000	315.0	12.116509	0.030780	0.001239	Spent Seconds	116.000000	330.0	24.546095	0.065324	0.015864	Spent Seconds	62.000000	330.0	39.795996	0.105909	0.026966	Spent Seconds	62.000000	330.0	33.343611	0.088737	0.022700	Spent Seconds	62.000000	330.0	12.285574	0.032695	0.008303	Spent Seconds	62.000000	330.0	24.607269	0.065487	0.016404	Spent Seconds	62.000000	330.0	44.817365	0.119272	0.030154	Spent Seconds	62.000000	330.0	15.047635	0.040046	0.008123	Spent Seconds	62.000000	330.0	31.092062	0.082745	0.020965	Spent Seconds	62.000000	330.0	34.210486	0.091044	0.022801	Spent Seconds	62.000000
320.0	23.558975	0.060797	0.004201			320.0	19.297303	0.049799	0.003455			340.0	40.106144	0.109968	0.037799			340.0	51.858238	0.142192	0.053500			340.0	45.946550	0.125982	0.046302			340.0	16.007533	0.043892	0.016515			340.0	32.322434	0.088626	0.033233			340.0	58.002138	0.159038	0.060015			340.0	13.750342	0.037703	0.016767			340.0	40.060761	0.109844	0.041530			340.0	45.916471	0.125900	0.046781		
325.0	32.326751	0.084727	0.008901			325.0	27.666805	0.072514	0.007486			350.0	45.771750	0.129194	0.057134			350.0	61.091699	0.172436	0.075149			350.0	52.749212	0.148889	0.065662			350.0	18.756215	0.052941	0.023129			350.0	38.506387	0.108687	0.047125			350.0	68.410244	0.193093	0.084106			350.0	28.470864	0.080361	0.028117			350.0	47.275324	0.133438	0.058108			350.0	53.910850	0.152168	0.066418		
330.0	42.645471	0.113492	0.019389			330.0	36.249206	0.096470	0.016526			360.0	50.018298	0.145214	0.072514			360.0	63.620979	0.184706	0.094451			360.0	55.579810	0.161361	0.082034			360.0	20.050465	0.058211	0.029383			360.0	41.543010	0.120609	0.060606			360.0	71.195416	0.206696	0.105731			360.0	36.863968	0.107024	0.049382			360.0	49.700359	0.144291	0.073438			360.0	55.839716	0.162115	0.083124		
335.0	48.972125	0.132304	0.026352			335.0	43.863400	0.118502	0.023046			370.0	50.954184	0.152041	0.095015			370.0	64.415541	0.192208	0.120459			370.0	56.366716	0.168191	0.105327			370.0	20.131827	0.060071	0.037794			370.0	42.277143	0.126150	0.078872			370.0	71.449035	0.213195	0.134165			370.0	32.809744	0.097900	0.065283			370.0	50.603534	0.150994	0.094385			370.0	56.045657	0.167233	0.105235		
340.0	55.087920	0.151048	0.030754			340.0	49.202582	0.134910	0.027503			380.0	47.226407	0.144726	0.100987			380.0	58.740153	0.180010	0.126643			380.0	51.984172	0.159306	0.111439			380.0	18.568901	0.056905	0.039804			380.0	39.712483	0.121700	0.084351			380.0	65.639358	0.201153	0.140987			380.0	29.528305	0.090490	0.064090			380.0	47.399472	0.145256	0.100821			380.0	51.224654	0.156979	0.110312		
345.0	60.486214	0.168288	0.037798			345.0	53.611625	0.149161	0.033628			390.0	53.440890	0.168080	0.099051			390.0	65.844722	0.207092	0.122572			390.0	58.601327	0.184311	0.108805			390.0	20.853942	0.065589	0.038787			390.0	44.994449	0.141515	0.083348			390.0	73.753665	0.231967	0.137144			390.0	35.569987	0.111873	0.064096			390.0	53.828216	0.169298	0.099606			390.0	57.521143	0.180913	0.106991		
350.0	64.992336	0.183446	0.042388			350.0	57.615296	0.162624	0.037574			400.0	54.295082	0.175145	0.129155			400.0	66.557844	0.214703	0.158701			400.0	59.890170	0.193194	0.142073			400.0	21.351363	0.068875	0.050608			400.0	46.380739	0.149615	0.109588			400.0	74.861021	0.241487	0.178155			400.0	35.968846	0.116029	0.085749			400.0	55.340713	0.178518	0.130918			400.0	58.275719	0.187986	0.138807		
355.0	67.515517	0.193290	0.052172			355.0	60.065206	0.171961	0.046336			410.0	54.462779	0.180079	0.205100			410.0	66.369786	0.219448	0.250680			410.0	60.478645	0.199970	0.226997			410.0	21.644402	0.071566	0.081083			410.0	47.329991	0.156494	0.176724			410.0	74.926310	0.247740	0.282475			410.0	35.293688	0.116697	0.134389			410.0	56.084378	0.185440	0.210131			410.0	57.984589	0.191723	0.219248		
360.0	68.304665	0.198304	0.049445			360.0	60.486748	0.175607	0.043889			420.0	54.767886	0.185504	0.219606			420.0	66.438690	0.225034	0.267004			420.0	60.720293	0.205666	0.243667			420.0	22.088623	0.074816	0.087930			420.0	48.416889	0.163993	0.192513			420.0	74.783063	0.253297	0.300978			420.0	37.549180	0.127183	0.146487			420.0	57.303776	0.194093	0.227982			420.0	58.137653	0.196918	0.233459		
365.0	69.722789	0.205232	0.057730			365.0	61.746536	0.181754	0.051124			430.0	54.993831	0.190704	0.223371			430.0	66.218316	0.229628	0.269987			430.0	61.004352	0.211547	0.247714			430.0	22.558855	0.078228	0.090842			430.0	49.573681	0.171909	0.199370			430.0	74.457720	0.258200	0.303743			430.0	35.921142	0.124565	0.149600			430.0	58.523698	0.202945	0.235668			430.0	58.166902	0.201708	0.236696		
370.0	69.091186	0.206159	0.072502			370.0	60.743626	0.181251	0.063974			440.0	55.116392	0.195574	0.231896			440.0	66.244490	0.235061	0.278958			440.0	61.191144	0.217130	0.257354			440.0	22.993232	0.081589	0.095976			440.0	50.618256	0.179613	0.211110			440.0	74.068716	0.262824	0.312741			440.0	35.885201	0.127335	0.151214			440.0	59.559216	0.211339	0.248786			440.0	58.433142	0.207343	0.245579		
375.0	61.889702	0.187166	0.062833			375.0	54.636778	0.165232	0.055344			450.0	54.909779	0.199269	0.283207			450.0	66.238931	0.240383	0.341027			450.0	60.942282	0.221162	0.314370			450.0	23.218139	0.084259	0.118967			450.0	51.064730	0.185316	0.261770			450.0	73.663428	0.267327	0.380254			450.0	36.719393	0.133256	0.186943			450.0	60.030428	0.217852	0.307865			450.0	58.413479	0.211984	0.300775		
380.0	63.111574	0.193406	0.068952			380.0	55.742924	0.170825	0.060887			460.0	55.086580	0.204353	0.311710			460.0	65.980778	0.244767	0.374683			460.0	60.636087	0.224940	0.344527			460.0	23.349024	0.086617	0.131964			460.0	51.339703	0.190454	0.290197			460.0	73.142111	0.271334	0.416014			460.0	35.818709	0.132876	0.205550			460.0	60.211853	0.223367	0.340745			460.0	58.127136	0.215633	0.330251		
385.0	70.681442	0.219454	0.061698			385.0	62.104235	0.192824	0.054353			470.0	54.911633	0.208133	0.321480			470.0	66.054960	0.250370	0.385885			470.0	60.318531	0.228627	0.353501			470.0	23.473158	0.088971	0.136841			470.0	51.347999	0.194625	0.300113			470.0	72.717083	0.275621	0.426287			470.0	35.764649	0.135560	0.209208			470.0	60.253693	0.228381	0.352070			470.0	58.204518	0.220614	0.339988		
390.0	71.033853	0.223413	0.073670			390.0	62.433699	0.196364	0.064741			480.0	54.373777	0.210479	0.330654			480.0	65.523184	0.253638	0.398107			480.0	60.114360	0.232701	0.364394			480.0	23.627499	0.091461	0.142520			480.0	51.593302	0.199716	0.311484			480.0	72.275930	0.279778	0.438700			480.0	35.275293	0.136550	0.214934			480.0	60.457869	0.234030	0.365251			480.0	58.154337	0.225114	0.352072		
395.0	71.485939	0.227717	0.076859			395.0	62.887075	0.200326	0.067581			490.0	53.859174	0.212831	0.323766			490.0	65.151424	0.257453	0.390885			490.0	60.186325	0.237833	0.359832			490.0	23.954308	0.094658	0.142307			490.0	52.195275	0.206256	0.310415			490.0	72.214177	0.285362	0.432193			490.0	35.263867	0.139349	0.210993			490.0	60.861747	0.240502	0.362863			490.0	58.329912	0.230497	0.348412		
400.0	71.890951	0.231906	0.094487			400.0	63.125866	0.203632	0.083036			500.0	53.342257	0.215090	0.335655			500.0	64.513409	0.260135	0.405990			500.0	60.369380	0.243425	0.377476			500.0	24.304498	0.098002	0.151108			500.0	52.897629	0.213297	0.329066			500.0	72.418588	0.292010	0.452865			500.0	35.509733	0.143184	0.221603			500.0	61.591755	0.248354	0.383424			500.0	58.897981	0.237492	0.367061		
405.0	71.832514	0.234614	0.136256			405.0	62.973588	0.205680	0.119547			510.0	52.675445	0.216649	0.332869			510.0	63.482181	0.261096	0.401867			510.0	60.312170	0.248058	0.378934			510.0	24.617655	0.101250	0.153625			510.0	53.348772	0.219418	0.333625			510.0	72.176126	0.296853	0.454014			510.0	35.029345	0.144072	0.221474			510.0	62.279080	0.256148	0.388973			510.0	59.296939	0.243883	0.371142		
410.0	71.961633	0.237938	0.134851			410.0	63.271073	0.209203	0.118394			520.0	51.759253	0.217055	0.323442			520.0	62.649605	0.262724	0.390622			520.0	60.558431	0.253955	0.374262			520.0	25.022490	0.104933	0.153686			520.0	54.118995	0.226951	0.332727			520.0	72.407528	0.303644	0.447691			520.0	35.875909	0.150447	0.219505			520.0	63.234084	0.265175	0.388593			520.0	59.912910	0.251248	0.369096		
415.0	72.041839	0.241108	0.142311			415.0	63.217689	0.211575	0.125000			530.0	50.994126	0.217959	0.332930			530.0	61.639945	0.263461	0.402709			530.0	60.721698	0.259536	0.392965			530.0	25.391889	0.108530	0.163352			530.0	54.861220	0.234487	0.353116			530.0	72.741150	0.310910	0.470304			530.0	35.257148	0.150696	0.230477			530.0	64.188725	0.274355	0.412874			530.0	60.517636	0.258664	0.390215		
420.0	72.118117	0.244271	0.147359			420.0	63.245772	0.214220	0.129270			540.0	49.910212	0.217351	0.337059			540.0	60.504529	0.263487	0.408008			540.0	60.723543	0.264441	0.405667			540.0	25.743964	0.112111	0.170808			540.0	55.420765	0.241348	0.368375			540.0	72.725986	0.316710	0.485908			540.0	35.672877	0.155350	0.236927			540.0	65.113858	0.283560	0.431908			540.0	61.079094	0.265990	0.406170		
425.0	72.031865	0.246883	0.151056			425.0	63.370771	0.217198	0.132684			550.0	49.061924	0.217613	0.332176			550.0	59.543139	0.264103	0.402914			550.0	60.966697	0.270417	0.408466			550.0	26.151298	0.115994	0.174201			550.0	55.943216	0.248135	0.373814			550.0	72.922607	0.323447	0.488881			550.0	36.790690	0.163185	0.243263			550.0	65.908764	0.292337	0.439808			550.0	61.767480	0.273969	0.412361		
430.0	71.859100	0.249189	0.142061			430.0	63.172101	0.219065	0.124935			560.0	48.250973	0.217908	0.332643			560.0	58.905265	0.266024	0.404883			560.0	61.032679	0.275631	0.417006			560.0	26.392416	0.119192	0.179595			560.0	56.391004	0.254669	0.383961			560.0	72.977542	0.329576	0.498702			560.0	35.859166	0.161945	0.248345			560.0	66.667003	0.301077	0.453143			560.0	62.301668	0.281362	0.424071		
435.0	71.988635	0.252541	0.139022			435.0	63.128449	0.221459	0.122054			570.0	48.155049	0.221358	0.330841			570.0	58.898027	0.270741	0.404270			570.0	61.107004	0.280895	0.419151			570.0	26.688881	0.122683	0.182160			570.0	56.788538	0.261044	0.388402			570.0	73.105441	0.336049	0.501319			570.0	36.384932	0.167253	0.247921			570.0	67.324312	0.309475	0.459821			570.0	62.778340	0.288578	0.429241		
440.0	71.989479	0.255447	0.164065			440.0	62.946737	0.223359	0.143667			580.0	47.773244	0.223455	0.330292			580.0	58.715976	0.274639	0.404961			580.0	61.238877	0.286440	0.421256			580.0	26.903697	0.125840	0.184529			580.0	57.089731	0.267033	0.392102			580.0	73.191885	0.342349	0.503724			580.0	36.049543	0.168619	0.249400			580.0	67.643488	0.316397	0.464717			580.0	63.170348	0.295474	0.433663		
445.0	71.828042	0.257770	0.180073			445.0	62.978858	0.226013	0.157674			590.0	47.761273	0.227251	0.335965			590.0	58.744446	0.279510	0.413070			590.0	61.537912	0.292801	0.431751			590.0	27.175940	0.129305	0.190166			590.0	57.469179	0.273442	0.402846			590.0	73.587438	0.350134	0.516155			590.0	36.920580	0.175671	0.256564			590.0	68.204017	0.324519	0.477702			590.0	63.489455	0.302087	0.445405		
450.0	71.692613	0.260175	0.189730			450.0	62.862478	0.228130	0.166358			600.0	47.175585	0.228269	0.331119			600.0	58.396600	0.282564	0.408572			600.0	61.785372	0.298961	0.430152			600.0	27.429380	0.132723	0.190467			600.0	57.963178	0.280467	0.402635			600.0	74.000599	0.358067	0.514791			600.0	36.859012	0.178350	0.257338			600.0	68.530290	0.331598	0.476931			600.0	63.860073	0.309000	0.444199		
455.0	71.889362	0.263788	0.200941			455.0	62.984908	0.231114	0.176122			610.0	46.590440	0.229195	0.337401			610.0	57.885636	0.284760	0.418426			610.0	61.938468	0.304697	0.445219			610.0	27.681652	0.136176	0.198321			610.0	58.358455	0.287086	0.418588			610.0	74.213817	0.365084	0.533349			610.0	36.432352	0.179224	0.263727			610.0	68.843270	0.338664	0.494341			610.0	64.176221	0.315706	0.460741		
460.0	71.615074	0.265669	0.205829			460.0	62.819267	0.233039	0.180442			620.0	45.999005	0.229995	0.334081			620.0	57.153156	0.285766	0.415082			620.0	62.099408	0.310497	0.447559			620.0	28.040970	0.140205	0.201063			620.0	58.673639	0.293368	0.422281			620.0	74.465951	0.372330	0.536473			620.0	37.132137	0.185661	0.265442			620.0	69.200075	0.346000	0.498095			620.0	64.604940	0.323025	0.464675		
465.0	71.720057	0.268950	0.210393			465.0	62.877862	0.235792	0.184503			630.0	44.967601	0.228464	0.325318			630.0	56.068721	0.284865	0.404904			630.0	62.010186	0.315052	0.443817			630.0	28.156616	0.143054	0.200960			630.0	58.777100	0.298626	0.420001			630.0	73.654784	0.374214	0.529696			630.0	36.867677	0.187312	0.264629			630.0	69.329782	0.352240	0.495379			630.0	64.582346	0.328120	0.461973		
470.0	71.705730	0.271788	0.208648			470.0	62.865975	0.238282	0.182925			640.0	44.377545	0.229045	0.327803			640.0	55.477422	0.286335	0.409264			640.0	61.886773	0.319416	0.454601			640.0	28.366892	0.146410	0.207406			640.0	58.871197	0.303851	0.431682			640.0	73.755638	0.380674	0.540886			640.0	37.267699	0.192349	0.272036			640.0	69.709140	0.359789	0.510181			640.0	65.035762	0.335668	0.475617		
475.0	71.171434	0.272633	0.213063			475.0	62.642490	0.239961	0.187165			650.0	43.548714	0.228280	0.324658			650.0	54.494380	0.285656	0.406057			650.0	61.525624	0.322513	0.455663			650.0	28.485027	0.149317	0.209900			650.0	58.671137	0.307550	0.433985			650.0	73.244977	0.383945	0.542757			650.0	36.996662	0.193934	0.274200			650.0	70.002418	0.366948	0.515822			650.0	65.193653	0.341741	0.480817		
480.0	70.887617	0.274404	0.217985			480.0	62.343541	0.241330	0.191786			660.0	42.824479	0.227937	0.310465			660.0	53.600751	0.285294	0.388543			660.0	60.945021	0.324385	0.440202			660.0	28.412344	0.151227	0.204503			660.0	58.462350	0.311171	0.421008			660.0	72.620899	0.386531	0.524291			660.0	37.087663	0.197402	0.266272			660.0	70.143211	0.373343	0.503708			660.0	65.223700	0.347158	0.468746		
485.0	70.794961	0.276900	0.220868			485.0	62.096839	0.242879	0.193991			670.0	42.011918	0.227000	0.320150			670.0	52.734621	0.284937	0.401286			670.0	60.149489	0.325001	0.456990			670.0	28.321820	0.153029	0.214114			670.0	57.840625	0.312526	0.438912			670.0	71.691193	0.387364	0.544610			670.0	36.762673	0.198637	0.278704			670.0	70.081613	0.378667	0.529212			670.0	65.310549	0.352888	0.492644		
490.0	70.428810	0.278307	0.202255			490.0	61.949210	0.244799	0.177660			680.0	41.276051	0.226353	0.318479			680.0	52.054206	0.285459	0.400696			680.0	59.491686	0.326245	0.457489			680.0	28.155015	0.154398	0.215959			680.0	57.321633	0.314344	0.440363			680.0	71.013824	0.389431	0.545682			680.0	37.237810	0.204207	0.282968			680.0	70.047468	0.384131	0.535833			680.0	65.122019	0.357121	0.498755		
495.0	69.924677	0.279135	0.218124			495.0	61.523385	0.245597	0.191890			690.0	40.519287	0.225470	0.288597			690.0	51.338821	0.285676	0.364759			690.0	58.673442	0.326489	0.416873			690.0	28.006173	0.155841	0.198089			690.0	56.686047	0.315430	0.402180			690.0	70.145584	0.390326	0.497976			690.0	36.905788	0.205363	0.261539			690.0	69.786176	0.388326	0.493196			690.0	64.741054	0.360253	0.458053		
500.0	69.701313	0.281054	0.220190			500.0	61.203001	0.246786	0.193541			700.0	39.835729	0.224879	0.286758			700.0	50.460493	0.284858	0.363285			700.0	57.853675	0.326593	0.415853			700.0	27.865698	0.157306	0.199405			700.0	56.190688	0.317205	0.402842			700.0	69.210240	0.390703	0.497325			700.0	36.253450	0.204657	0.261078			700.0	69.364626	0.391574	0.496620			700.0	64.172110	0.362262	0.460073		
505.0	69.069886	0.281293	0.212957			505.0	60.722169	0.247296	0.187106			710.0	39.077196	0.223748	0.291092			710.0	49.765489	0.284948	0.369720			710.0	57.138348	0.327163	0.424193			710.0	27.612398	0.158103	0.204656			710.0	55.559287	0.318122	0.412236			710.0	68.424857	0.391787	0.507723			710.0	36.454575	0.208732	0.268234			710.0	68.825903	0.394084	0.509781			710.0	63.762896	0.365094	0.471951		
510.0	68.648566	0.282345	0.221090			510.0	60.214604	0.247657	0.194150			720.0	38.619975	0.224245	0.267903			720.0	49.092592	0.285054	0.340885			720.0	56.646355	0.328914	0.392300			720.0	27.561817	0.160036	0.190189			720.0	55.109951	0.319993	0.381553			720.0	67.836956	0.393892	0.469795			720.0	36.363051	0.211140	0.251012			720.0	68.282511	0.396479	0.472704			720.0	63.114376	0.366471	0.437459		
515.0	68.100972	0.282839	0.218881			515.0	59.741569	0.248120	0.192001			730.0	38.035910	0.223921	0.243727			730.0	48.272824	0.284187	0.309574			730.0	55.906765	0.329129	0.357859			730.0	27.310734	0.160781	0.174463			730.0	54.527172	0.321007	0.348584			730.0	67.231793	0.395800	0.429440			730.0	36.534449	0.215082	0.231760			730.0	67.697211	0.398540	0.432336			730.0	62.389529	0.367293	0.399033		
520.0	67.611789	0.283533	0.203028			520.0	59.361866	0.248937	0.178180			740.0	36.737282	0.219239	0.263134			740.0	46.854050	0.279613	0.334774			740.0	54.961087	0.327994	0.390214			740.0	27.132425	0.161919	0.191637			740.0	53.950365	0.321962	0.381822			740.0	66.320504	0.395784	0.470069			740.0	36.327602	0.216794	0.256473			740.0	67.138522	0.400665	0.474608			740.0	61.736576	0.368428	0.436903		
525.0	67.149078	0.284301	0.219328			525.0	59.029285	0.249922	0.192687			750.0	33.624883	0.203376	0.261400			750.0	42.680525	0.258148	0.332622			750.0	52.536395	0.317760	0.399407			750.0	26.297954	0.159060	0.198528			750.0	52.009432	0.314573	0.393703			750.0	63.415204	0.383560	0.482034			750.0	33.524940	0.202772	0.259512			750.0	65.507508	0.396215	0.492874			750.0	59.669340	0.360903	0.451098		
530.0	66.670212	0.284961	0.215784			530.0	58.538446	0.250205	0.189577			760.0	25.516396	0.156391	0.213347			760.0	32.520728	0.199321	0.271261			760.0	44.904495	0.275221	0.350703			760.0	22.916731	0.140457	0.177064			760.0	45.181577	0.276919	0.349693			760.0	54.628561	0.334820	0.424791			760.0	32.290496	0.197909	0.236326			760.0	58.570790	0.358982	0.446182			760.0	52.604490	0.322415	0.403845		
535.0	66.063059	0.285030	0.220531			535.0	58.076351	0.250571	0.193750			770.0	14.674981	0.091127	0.083404			770.0	18.618748	0.115616	0.106064			770.0	30.837731	0.191492	0.160635			770.0	16.438270	0.102076	0.083916			770.0	31.931346	0.198283	0.164124			770.0	38.222769	0.237351	0.197376			770.0	25.448534	0.158027	0.124562			770.0	42.479275	0.263783	0.215762			770.0	36.852110	0.228840	0.190189		
540.0	65.395415	0.284786	0.220719			540.0	57.508422	0.250440	0.194067			780.0	5.471733	0.034419	0.073845			780.0	6.954903	0.043749	0.093737			780.0	15.378879	0.096738	0.169450			780.0	8.499822	0.053467	0.091438			780.0	16.391160	0.103106	0.177177			780.0	19.459939	0.122409	0.211495			780.0	14.875529	0.093572	0.147871			780.0	22.134675	0.139234	0.236914			780.0	18.249298	0.114794	0.202025		
545.0	65.025411	0.285797	0.216689			545.0	57.025565	0.250637	0.190290			790.0	1.970563	0.012554	0.027137			790.0	2.288968	0.014583	0.033713			790.0	6.339721	0.040390	0.079169			790.0	3.719897	0.023699	0.044537			790.0	7.073986	0.045068	0.085526			790.0	8.297207	0.052861	0.101173			790.0	5.744569	0.036598	0.075176			790.0	9.515809	0.060625	0.115361			790.0	7.210044	0.045935	0.092814		
550.0	64.440637	0.285825	0.219443			550.0	56.561543	0.250878	0.192528			800.0	0.299724	0.001934	0.007950			800.0	0.669766	0.004321	0.010362			800.0	2.248409	0.014506	0.030080			800.0	1.227680	0.007921	0.017328			800.0	2.393217	0.015440	0.033158			800.0	2.839351	0.018318	0.039005			800.0	1.098375	0.007086	0.023963			800.0	3.186539	0.020558	0.044489			800.0	2.235576	0.014423	0.033082		
555.0	64.138319	0.287071	0.221729			555.0	56.316915	0.252064	0.194654			810.0	0.153710	0.001004	0.001583			810.0	0.218281	0.001426	0.003100			810.0	0.653129	0.004266	0.010128			810.0	0.364304	0.002380	0.005557			810.0	0.692702	0.004525	0.010772			810.0	0.827204	0.005404	0.012799			810.0	1.165902	0.007616	0.007904			810.0	0.888027	0.005801	0.014223			810.0	0.516303	0.003373	0.009606		
560.0	63.976197	0.288925	0.216983			560.0	56.173495	0.253687	0.190521			820.0	0.097663	0.000646	0.000772			820.0	0.040159	0.000266	0.000809			820.0	0.160357	0.001060	0.002538			820.0	0.074901	0.000495	0.001373			820.0	0.151487	0.001002	0.002637			820.0	0.198703	0.001314	0.003201			820.0	0.289236	0.001913	0.004539			820.0	0.194034	0.001283	0.003380			820.0	0.147578	0.000976	0.002067		
565.0	63.750618	0.290477	0.219992			565.0	56.017397	0.255241	0.193234			830.0	0.179898	0.001204	0.000843			830.0	0.012786	0.000086	0.000160			830.0	0.053273	0.000357	0.000646			830.0	0.045181	0.000302	0.000364			830.0	0.079748	0.000534	0.000700			830.0	0.088361	0.000591	0.000868			830.0	0.156391	0.001047	0.001349			830.0	0.082563	0.000553	0.000837			830.0	0.062937	0.000421	0.000637		
570.0	63.951816	0.293972	0.218291			570.0	56.066141	0.257723	0.191592			840.0	0.189516	0.001284	0.001202			840.0	0.005606	0.000038	0.000059			840.0	0.079001	0.000535	0.000432			840.0	0.042485	0.000288	0.000285			840.0	0.081605	0.000553	0.000525			840.0	0.049932	0.000338	0.000447			840.0	0.607982	0.004119	0.002520			840.0	0.081463	0.000552	0.000534			840.0	0.130619	0.000885	0.000635		
575.0	63.945151	0.296520	0.220227			575.0	56.217895	0.260688	0.193345			850.0	0.124769	0.000855	0.001068			850.0	0.056742	0.000389	0.000211			850.0	0.174249	0.001194	0.000857			850.0	0.067316	0.000461	0.000372			850.0	0.148185	0.001016	0.000778			850.0	0.145950	0.001000	0.000663			850.0	0.538786	0.003693	0.003893			850.0	0.093223	0.000639	0.000593			850.0	0.139647	0.000957	0.000917		
580.0	64.028314	0.299487	0.220273			580.0	56.193797	0.262842	0.193487																																																								
585.0	64.047643	0.302160	0.230192			585.0	56.274730	0.265490	0.202141																																																								
590.0	64.003803	0.304534	0.220171			590.0	56.285422	0.267810	0.193533																																																								
595.0	63.693227	0.305625	0.219925			595.0	56.207178	0.269704	0.193740																																																								
600.0	63.628451	0.307880	0.224810			600.0	56.012039	0.271026	0.198144																																																								
605.0	63.329616	0.308987	0.226265			605.0	55.648566	0.271511	0.199001																																																								
610.0	62.916817	0.309510	0.229294			610.0	55.508453	0.273066	0.201888																																																								
615.0	62.408007	0.309524	0.225767			615.0	55.013389	0.272849	0.199100																																																								
620.0	62.080257	0.310401	0.224922			620.0	54.734136	0.273671	0.198289																																																								
625.0	61.518810	0.310075	0.222589			625.0	54.363144	0.274008	0.196470																																																								
630.0	61.004191	0.309941	0.217500			630.0	53.924574	0.273972	0.192230																																																								
635.0	60.363484	0.309119	0.219124			635.0	53.487442	0.273907	0.193930																																																								
640.0	60.201877	0.310719	0.224695			640.0	53.150493	0.274325	0.198737																																																								
645.0	59.562496	0.309821	0.223939			645.0	52.707846	0.274166	0.197938																																																								
650.0	59.120241	0.309904	0.216277			650.0	52.448881	0.274934	0.191626																																																								
655.0	58.564882	0.309355	0.217792			655.0	51.904312	0.274172	0.193119																																																								
660.0	58.167013	0.309599	0.203512			660.0	51.520805	0.274224	0.180312																																																								
665.0	57.559389	0.308685	0.215400			665.0	51.077064	0.273921	0.190964																																																								
670.0	57.140122	0.308741	0.219386			670.0	50.649798	0.273672	0.194573																																																								
675.0	56.589744	0.308049	0.217100			675.0	50.277202	0.273686	0.192661																																																								
680.0	56.368791	0.309119	0.216310			680.0	49.964702	0.274000	0.191958																																																								
685.0	56.012732	0.309425	0.214430			685.0	49.686250	0.274476	0.190139																																																								
690.0	55.556852	0.309147	0.180616			690.0	49.251536	0.274061	0.160168																																																								
695.0	55.132340	0.309008	0.192778			695.0	48.907211	0.274117	0.170955																																																								
700.0	54.648796	0.308501	0.200614			700.0	48.570642	0.274189	0.178132																																																								
705.0	54.205928	0.308187	0.197914			705.0	48.177406	0.273912	0.175902																																																								
710.0	53.766324	0.307856	0.202005			710.0	47.877199	0.274136	0.179708																																																								
715.0	53.497057	0.308471	0.200500			715.0	47.533010	0.274081	0.178345																																																								
720.0	53.101925	0.308334	0.168216			720.0	47.315446	0.274735	0.149660																																																								
725.0	52.760728	0.308480	0.170835			725.0	46.899164	0.274209	0.152039																																																								
730.0	52.310602	0.307958	0.164495			730.0	46.610894	0.274403	0.146396																																																								
735.0	51.782940	0.306939	0.179224			735.0	46.159750	0.273608	0.159730																																																								
740.0	50.756535	0.302902	0.184381			740.0	45.223551	0.269882	0.164321																																																								
745.0	49.116880	0.295097	0.184067			745.0	43.814073	0.263238	0.164097																																																								
750.0	46.353467	0.280364	0.178797			750.0	41.447011	0.250688	0.159677																																																								
755.0	41.817302	0.254613	0.164975			755.0	37.483991	0.228229	0.147687																																																								
760.0	35.330565	0.216542	0.133301			760.0	31.996507	0.196108	0.120006																																																								
765.0	29.196458	0.180123	0.043725			765.0	26.526697	0.163653	0.039667																																																								
770.0	20.534375	0.127512	0.075131			770.0	18.604660	0.115529	0.068174																																																								
775.0	13.300128	0.083126	0.061828			775.0	12.050254	0.075314	0.056018																																																								
780.0	7.961748	0.050082	0.039141			780.0	7.087772	0.044584	0.035231																																																								
785.0	4.453703	0.028195	0.022737			785.0	3.860425	0.024439	0.020050																																																								
790.0	2.602127	0.016578	0.012766			790.0	2.211906	0.014092	0.010988																																																								
795.0	1.387739	0.008897	0.006985			795.0	1.082800	0.006942	0.005768																																																								
800.0	0.831412	0.005364	0.003889			800.0	0.632427	0.004080	0.003005																																																								
805.0	0.447400	0.002904	0.002227			805.0	0.354662	0.002302	0.001719																																																								
810.0	0.331824	0.002168	0.001365			810.0	0.182949	0.001195	0.000942																																																								
815.0	0.114966	0.000756	0.000738			815.0	0.020905	0.000137	0.000340																																																								
820.0	0.057645	0.000381	0.000244			820.0	0.033649	0.000223	0.000077																																																								
825.0	0.040938	0.000272	0.000146			825.0	0.038588	0.000257	0.000107																																																								
830.0	0.062935	0.000421	0.000160			830.0	0.037266	0.000249	0.000117																																																								
835.0	0.051052	0.000344	0.000178			835.0	0.032570	0.000219	0.000109																																																								
840.0	0.074581	0.000505	0.000212			840.0	0.057796	0.000392	0.000153																																																								
845.0	0.140163	0.000955	0.000366			845.0	0.059091	0.000403	0.000199																																																								
850.0	0.105226	0.000721	0.000415			850.0	0.024189	0.000166	0.000142																																																								
